Data from Cr-10ng_USB2E8911_005.txt Node
Date: Tue May 14 16:22:11 PDT 2019
User: admin
Spectrometer: USB2E891
Trigger mode: 1
Integration Time (sec): 1.000000E-1
Scans to average: 1
Electric dark correction enabled: true
Nonlinearity correction enabled: false
Boxcar width: 0
XAxis mode: Wavelengths
Number of Pixels in Spectrum: 2048
>>>>>Begin Spectral Data<<<<<
183.106	-231.72
183.502	7.28
183.898	8.28
184.293	16.28
184.689	10.28
185.085	15.28
185.48	15.28
185.876	15.28
186.271	16.28
186.667	13.28
187.062	11.28
187.457	12.28
187.853	18.28
188.248	16.28
188.643	11.28
189.039	17.28
189.434	16.28
189.829	11.28
190.224	19.28
190.619	13.28
191.014	14.28
191.409	14.28
191.805	21.28
192.199	13.28
192.594	12.28
192.989	18.28
193.384	14.28
193.779	15.28
194.174	17.28
194.569	20.28
194.964	19.28
195.358	22.28
195.753	18.28
196.148	22.28
196.542	24.28
196.937	23.28
197.331	21.28
197.726	23.28
198.12	20.28
198.515	26.28
198.909	18.28
199.304	20.28
199.698	18.28
200.092	22.28
200.487	22.28
200.881	18.28
201.275	17.28
201.669	16.28
202.063	21.28
202.458	20.28
202.852	20.28
203.246	17.28
203.64	21.28
204.034	23.28
204.428	17.28
204.822	18.28
205.216	17.28
205.609	24.28
206.003	17.28
206.397	11.28
206.791	24.28
207.184	26.28
207.578	17.28
207.972	26.28
208.365	21.28
208.759	24.28
209.153	18.28
209.546	24.28
209.94	28.28
210.333	17.28
210.726	20.28
211.12	20.28
211.513	27.28
211.906	18.28
212.3	24.28
212.693	23.28
213.086	22.28
213.479	22.28
213.873	17.28
214.266	23.28
214.659	24.28
215.052	24.28
215.445	26.28
215.838	27.28
216.231	24.28
216.624	28.28
217.016	21.28
217.409	19.28
217.802	31.28
218.195	20.28
218.588	24.28
218.98	21.28
219.373	20.28
219.766	25.28
220.158	32.28
220.551	25.28
220.943	24.28
221.336	25.28
221.728	29.28
222.121	26.28
222.513	27.28
222.906	26.28
223.298	32.28
223.69	24.28
224.082	29.28
224.475	29.28
224.867	29.28
225.259	24.28
225.651	27.28
226.043	26.28
226.435	29.28
226.827	19.28
227.219	25.28
227.611	30.28
228.003	25.28
228.395	29.28
228.787	25.28
229.179	25.28
229.57	31.28
229.962	25.28
230.354	31.28
230.746	26.28
231.137	30.28
231.529	30.28
231.92	34.28
232.312	29.28
232.703	31.28
233.095	32.28
233.486	29.28
233.878	31.28
234.269	39.28
234.66	35.28
235.052	29.28
235.443	27.28
235.834	33.28
236.225	33.28
236.616	37.28
237.008	34.28
237.399	34.28
237.79	37.28
238.181	29.28
238.572	39.28
238.963	48.28
239.354	40.28
239.744	49.28
240.135	47.28
240.526	41.28
240.917	41.28
241.308	41.28
241.698	38.28
242.089	39.28
242.48	43.28
242.87	50.28
243.261	51.28
243.651	44.28
244.042	41.28
244.432	48.28
244.823	45.28
245.213	53.28
245.603	66.28
245.994	67.28
246.384	55.28
246.774	55.28
247.164	54.28
247.555	59.28
247.945	68.28
248.335	67.28
248.725	80.28
249.115	72.28
249.505	57.28
249.895	56.28
250.285	55.28
250.675	50.28
251.065	58.28
251.454	55.28
251.844	58.28
252.234	71.28
252.624	65.28
253.013	51.28
253.403	56.28
253.793	47.28
254.182	61.28
254.572	71.28
254.961	93.28
255.351	108.28
255.74	85.28
256.13	73.28
256.519	68.28
256.908	89.28
257.298	75.28
257.687	76.28
258.076	81.28
258.465	66.28
258.854	63.28
259.243	50.28
259.633	62.28
260.022	70.28
260.411	96.28
260.8	96.28
261.188	93.28
261.577	76.28
261.966	77.28
262.355	74.28
262.744	75.28
263.133	77.28
263.521	78.28
263.91	69.28
264.299	72.28
264.687	85.28
265.076	99.28
265.464	122.28
265.853	131.28
266.241	107.28
266.63	94.28
267.018	86.28
267.407	79.28
267.795	114.28
268.183	94.28
268.571	93.28
268.96	73.28
269.348	89.28
269.736	115.28
270.124	133.28
270.512	107.28
270.9	99.28
271.288	114.28
271.676	136.28
272.064	170.28
272.452	131.28
272.84	97.28
273.228	59.28
273.616	58.28
274.003	58.28
274.391	83.28
274.779	70.28
275.166	72.28
275.554	71.28
275.941	105.28
276.329	121.28
276.717	140.28
277.104	140.28
277.491	127.28
277.879	99.28
278.266	76.28
278.653	89.28
279.041	109.28
279.428	124.28
279.815	98.28
280.202	105.28
280.589	81.28
280.977	77.28
281.364	69.28
281.751	83.28
282.138	95.28
282.525	112.28
282.912	151.28
283.298	153.28
283.685	130.28
284.072	112.28
284.459	119.28
284.846	123.28
285.232	124.28
285.619	116.28
286.006	102.28
286.392	118.28
286.779	109.28
287.165	98.28
287.552	136.28
287.938	149.28
288.325	124.28
288.711	82.28
289.097	108.28
289.484	145.28
289.87	119.28
290.256	87.28
290.642	94.28
291.028	93.28
291.414	103.28
291.801	94.28
292.187	106.28
292.573	92.28
292.959	102.28
293.344	131.28
293.73	159.28
294.116	219.28
294.502	253.28
294.888	208.28
295.274	105.28
295.659	77.28
296.045	86.28
296.431	92.28
296.816	97.28
297.202	104.28
297.587	118.28
297.973	117.28
298.358	104.28
298.744	95.28
299.129	117.28
299.514	126.28
299.9	107.28
300.285	87.28
300.67	93.28
301.055	135.28
301.44	172.28
301.825	168.28
302.211	160.28
302.596	132.28
302.981	114.28
303.366	88.28
303.75	118.28
304.135	154.28
304.52	195.28
304.905	174.28
305.29	142.28
305.675	81.28
306.059	77.28
306.444	89.28
306.829	85.28
307.213	93.28
307.598	101.28
307.982	99.28
308.367	89.28
308.751	97.28
309.135	109.28
309.52	94.28
309.904	97.28
310.288	101.28
310.673	103.28
311.057	93.28
311.441	91.28
311.825	105.28
312.209	90.28
312.593	92.28
312.977	80.28
313.361	83.28
313.745	85.28
314.129	106.28
314.513	102.28
314.897	95.28
315.281	95.28
315.665	99.28
316.048	116.28
316.432	121.28
316.816	108.28
317.199	103.28
317.583	142.28
317.966	160.28
318.35	143.28
318.733	118.28
319.117	117.28
319.5	140.28
319.884	147.28
320.267	171.28
320.65	187.28
321.033	221.28
321.417	210.28
321.8	206.28
322.183	128.28
322.566	106.28
322.949	110.28
323.332	127.28
323.715	136.28
324.098	152.28
324.481	212.28
324.864	212.28
325.246	174.28
325.629	124.28
326.012	122.28
326.395	129.28
326.777	159.28
327.16	154.28
327.543	155.28
327.925	132.28
328.308	107.28
328.69	108.28
329.073	125.28
329.455	143.28
329.837	165.28
330.22	173.28
330.602	148.28
330.984	148.28
331.366	181.28
331.748	135.28
332.131	142.28
332.513	170.28
332.895	159.28
333.277	149.28
333.659	150.28
334.041	170.28
334.423	147.28
334.804	129.28
335.186	110.28
335.568	122.28
335.95	114.28
336.332	124.28
336.713	132.28
337.095	161.28
337.476	181.28
337.858	144.28
338.239	132.28
338.621	110.28
339.002	97.28
339.384	108.28
339.765	114.28
340.146	111.28
340.528	124.28
340.909	148.28
341.29	155.28
341.671	138.28
342.053	126.28
342.434	118.28
342.815	123.28
343.196	113.28
343.577	109.28
343.958	136.28
344.338	132.28
344.719	131.28
345.1	117.28
345.481	121.28
345.862	124.28
346.242	115.28
346.623	105.28
347.004	94.28
347.384	106.28
347.765	111.28
348.145	119.28
348.526	118.28
348.906	145.28
349.287	154.28
349.667	144.28
350.047	123.28
350.428	130.28
350.808	149.28
351.188	123.28
351.568	126.28
351.948	117.28
352.328	143.28
352.708	140.28
353.088	139.28
353.468	127.28
353.848	158.28
354.228	181.28
354.608	182.28
354.988	157.28
355.368	125.28
355.747	125.28
356.127	128.28
356.507	159.28
356.886	201.28
357.266	203.28
357.645	169.28
358.025	142.28
358.404	140.28
358.784	149.28
359.163	159.28
359.542	149.28
359.922	127.28
360.301	150.28
360.68	185.28
361.059	247.28
361.439	341.28
361.818	352.28
362.197	267.28
362.576	191.28
362.955	171.28
363.334	164.28
363.713	177.28
364.091	181.28
364.47	163.28
364.849	131.28
365.228	136.28
365.606	140.28
365.985	128.28
366.364	121.28
366.742	128.28
367.121	124.28
367.499	152.28
367.878	193.28
368.256	235.28
368.635	203.28
369.013	165.28
369.391	141.28
369.77	137.28
370.148	175.28
370.526	237.28
370.904	248.28
371.282	189.28
371.66	172.28
372.038	147.28
372.416	133.28
372.794	124.28
373.172	133.28
373.55	138.28
373.928	137.28
374.306	154.28
374.683	145.28
375.061	191.28
375.439	268.28
375.816	308.28
376.194	343.28
376.572	331.28
376.949	326.28
377.327	321.28
377.704	332.28
378.081	318.28
378.459	254.28
378.836	206.28
379.213	218.28
379.591	207.28
379.968	213.28
380.345	229.28
380.722	274.28
381.099	342.28
381.476	390.28
381.853	394.28
382.23	340.28
382.607	302.28
382.984	378.28
383.361	437.28
383.738	459.28
384.114	437.28
384.491	406.28
384.868	420.28
385.244	345.28
385.621	341.28
385.997	384.28
386.374	535.28
386.75	607.28
387.127	543.28
387.503	458.28
387.88	445.28
388.256	379.28
388.632	295.28
389.008	206.28
389.385	180.28
389.761	173.28
390.137	164.28
390.513	156.28
390.889	141.28
391.265	135.28
391.641	144.28
392.017	150.28
392.393	198.28
392.768	329.28
393.144	465.28
393.52	471.28
393.896	347.28
394.271	260.28
394.647	237.28
395.022	253.28
395.398	251.28
395.773	243.28
396.149	292.28
396.524	369.28
396.9	382.28
397.275	301.28
397.65	272.28
398.026	278.28
398.401	279.28
398.776	240.28
399.151	238.28
399.526	240.28
399.901	276.28
400.276	471.28
400.651	776.28
401.026	917.28
401.401	794.28
401.776	543.28
402.151	364.28
402.525	242.28
402.9	206.28
403.275	245.28
403.649	277.28
404.024	343.28
404.399	401.28
404.773	372.28
405.148	270.28
405.522	211.28
405.896	221.28
406.271	305.28
406.645	544.28
407.019	852.28
407.393	933.28
407.768	717.28
408.142	465.28
408.516	315.28
408.89	246.28
409.264	233.28
409.638	287.28
410.012	380.28
410.386	428.28
410.76	349.28
411.133	285.28
411.507	277.28
411.881	263.28
412.255	263.28
412.628	255.28
413.002	262.28
413.375	312.28
413.749	340.28
414.122	311.28
414.496	280.28
414.869	222.28
415.243	215.28
415.616	207.28
415.989	187.28
416.363	210.28
416.736	269.28
417.109	307.28
417.482	258.28
417.855	226.28
418.228	194.28
418.601	169.28
418.974	164.28
419.347	148.28
419.72	161.28
420.093	191.28
420.465	212.28
420.838	206.28
421.211	188.28
421.583	215.28
421.956	238.28
422.329	271.28
422.701	276.28
423.074	228.28
423.446	239.28
423.818	286.28
424.191	329.28
424.563	323.28
424.935	248.28
425.308	258.28
425.68	302.28
426.052	342.28
426.424	459.28
426.796	564.28
427.168	575.28
427.54	482.28
427.912	414.28
428.284	315.28
428.656	393.28
429.028	721.28
429.399	935.28
429.771	1002.28
430.143	831.28
430.514	678.28
430.886	465.28
431.258	316.28
431.629	237.28
432.001	184.28
432.372	176.28
432.743	201.28
433.115	201.28
433.486	194.28
433.857	178.28
434.229	196.28
434.6	210.28
434.971	209.28
435.342	203.28
435.713	199.28
436.084	202.28
436.455	208.28
436.826	208.28
437.197	182.28
437.568	183.28
437.939	189.28
438.309	194.28
438.68	178.28
439.051	160.28
439.421	161.28
439.792	152.28
440.163	166.28
440.533	195.28
440.903	203.28
441.274	198.28
441.644	200.28
442.015	200.28
442.385	210.28
442.755	191.28
443.125	184.28
443.496	186.28
443.866	204.28
444.236	186.28
444.606	183.28
444.976	169.28
445.346	189.28
445.716	187.28
446.085	192.28
446.455	205.28
446.825	193.28
447.195	171.28
447.565	177.28
447.934	225.28
448.304	238.28
448.673	252.28
449.043	222.28
449.412	202.28
449.782	177.28
450.151	173.28
450.521	178.28
450.89	175.28
451.259	175.28
451.628	171.28
451.998	148.28
452.367	140.28
452.736	141.28
453.105	153.28
453.474	165.28
453.843	165.28
454.212	182.28
454.581	196.28
454.95	170.28
455.318	171.28
455.687	171.28
456.056	160.28
456.424	158.28
456.793	163.28
457.162	157.28
457.53	148.28
457.899	147.28
458.267	141.28
458.636	164.28
459.004	185.28
459.372	195.28
459.741	192.28
460.109	183.28
460.477	172.28
460.845	194.28
461.213	198.28
461.581	182.28
461.949	158.28
462.317	152.28
462.685	157.28
463.053	148.28
463.421	157.28
463.789	166.28
464.157	173.28
464.524	167.28
464.892	170.28
465.26	214.28
465.627	301.28
465.995	339.28
466.362	279.28
466.73	215.28
467.097	212.28
467.464	271.28
467.832	350.28
468.199	362.28
468.566	267.28
468.933	205.28
469.301	208.28
469.668	193.28
470.035	176.28
470.402	154.28
470.769	145.28
471.136	155.28
471.503	160.28
471.869	167.28
472.236	157.28
472.603	166.28
472.97	152.28
473.336	144.28
473.703	140.28
474.07	137.28
474.436	151.28
474.803	149.28
475.169	173.28
475.536	204.28
475.902	211.28
476.268	177.28
476.635	165.28
477.001	165.28
477.367	152.28
477.733	141.28
478.099	144.28
478.465	134.28
478.831	140.28
479.197	147.28
479.563	147.28
479.929	162.28
480.295	173.28
480.661	164.28
481.026	181.28
481.392	175.28
481.758	174.28
482.123	184.28
482.489	156.28
482.855	154.28
483.22	183.28
483.585	234.28
483.951	396.28
484.316	504.28
484.682	507.28
485.047	350.28
485.412	304.28
485.777	247.28
486.142	234.28
486.507	193.28
486.873	170.28
487.238	170.28
487.602	184.28
487.967	247.28
488.332	346.28
488.697	403.28
489.062	385.28
489.427	291.28
489.791	257.28
490.156	229.28
490.521	231.28
490.885	208.28
491.25	209.28
491.614	203.28
491.979	198.28
492.343	192.28
492.707	203.28
493.072	196.28
493.436	207.28
493.8	177.28
494.164	178.28
494.528	180.28
494.892	173.28
495.256	180.28
495.62	181.28
495.984	190.28
496.348	185.28
496.712	197.28
497.076	200.28
497.44	233.28
497.803	311.28
498.167	378.28
498.531	385.28
498.894	310.28
499.258	278.28
499.621	268.28
499.985	347.28
500.348	449.28
500.711	509.28
501.075	525.28
501.438	488.28
501.801	454.28
502.164	335.28
502.527	274.28
502.891	239.28
503.254	216.28
503.617	225.28
503.98	213.28
504.342	254.28
504.705	412.28
505.068	694.28
505.431	780.28
505.794	628.28
506.156	468.28
506.519	504.28
506.882	514.28
507.244	502.28
507.607	375.28
507.969	291.28
508.331	246.28
508.694	231.28
509.056	212.28
509.418	197.28
509.781	185.28
510.143	196.28
510.505	200.28
510.867	214.28
511.229	190.28
511.591	184.28
511.953	194.28
512.315	177.28
512.677	205.28
513.039	173.28
513.401	191.28
513.762	183.28
514.124	179.28
514.486	179.28
514.847	186.28
515.209	186.28
515.57	186.28
515.932	167.28
516.293	163.28
516.654	159.28
517.016	148.28
517.377	150.28
517.738	164.28
518.1	170.28
518.461	175.28
518.822	177.28
519.183	188.28
519.544	187.28
519.905	210.28
520.266	231.28
520.627	242.28
520.987	235.28
521.348	240.28
521.709	289.28
522.07	433.28
522.43	492.28
522.791	477.28
523.151	336.28
523.512	277.28
523.872	271.28
524.233	257.28
524.593	237.28
524.953	213.28
525.314	214.28
525.674	221.28
526.034	219.28
526.394	201.28
526.754	190.28
527.114	198.28
527.474	191.28
527.834	188.28
528.194	168.28
528.554	163.28
528.914	167.28
529.274	164.28
529.634	148.28
529.993	152.28
530.353	153.28
530.712	144.28
531.072	166.28
531.431	145.28
531.791	149.28
532.15	167.28
532.51	139.28
532.869	146.28
533.228	150.28
533.587	158.28
533.947	162.28
534.306	164.28
534.665	173.28
535.024	186.28
535.383	197.28
535.742	184.28
536.101	173.28
536.46	160.28
536.818	158.28
537.177	173.28
537.536	159.28
537.895	158.28
538.253	164.28
538.612	159.28
538.97	161.28
539.329	146.28
539.687	161.28
540.046	147.28
540.404	146.28
540.762	142.28
541.12	141.28
541.479	128.28
541.837	149.28
542.195	132.28
542.553	154.28
542.911	145.28
543.269	162.28
543.627	173.28
543.985	153.28
544.343	145.28
544.7	148.28
545.058	150.28
545.416	138.28
545.774	134.28
546.131	139.28
546.489	131.28
546.846	139.28
547.204	143.28
547.561	149.28
547.918	142.28
548.276	149.28
548.633	162.28
548.99	184.28
549.347	191.28
549.705	179.28
550.062	177.28
550.419	179.28
550.776	196.28
551.133	274.28
551.49	315.28
551.846	272.28
552.203	208.28
552.56	178.28
552.917	162.28
553.273	174.28
553.63	152.28
553.987	148.28
554.343	130.28
554.7	129.28
555.056	110.28
555.412	128.28
555.769	117.28
556.125	132.28
556.481	109.28
556.837	121.28
557.194	116.28
557.55	123.28
557.906	107.28
558.262	115.28
558.618	118.28
558.974	114.28
559.329	112.28
559.685	119.28
560.041	124.28
560.397	113.28
560.752	120.28
561.108	119.28
561.464	118.28
561.819	107.28
562.175	123.28
562.53	119.28
562.886	127.28
563.241	133.28
563.596	125.28
563.951	126.28
564.307	142.28
564.662	149.28
565.017	159.28
565.372	130.28
565.727	141.28
566.082	136.28
566.437	125.28
566.792	119.28
567.147	125.28
567.501	134.28
567.856	124.28
568.211	106.28
568.565	111.28
568.92	93.28
569.275	111.28
569.629	101.28
569.984	103.28
570.338	93.28
570.692	92.28
571.047	91.28
571.401	90.28
571.755	99.28
572.109	92.28
572.463	99.28
572.817	106.28
573.171	126.28
573.525	141.28
573.879	129.28
574.233	118.28
574.587	115.28
574.941	109.28
575.295	102.28
575.648	108.28
576.002	94.28
576.355	99.28
576.709	89.28
577.062	88.28
577.416	94.28
577.769	81.28
578.123	92.28
578.476	98.28
578.829	85.28
579.182	95.28
579.536	100.28
579.889	114.28
580.242	119.28
580.595	126.28
580.948	108.28
581.301	99.28
581.654	98.28
582.006	89.28
582.359	90.28
582.712	90.28
583.065	81.28
583.417	89.28
583.77	82.28
584.122	95.28
584.475	89.28
584.827	97.28
585.18	92.28
585.532	100.28
585.884	89.28
586.237	98.28
586.589	90.28
586.941	92.28
587.293	80.28
587.645	96.28
587.997	102.28
588.349	201.28
588.701	385.28
589.053	572.28
589.405	608.28
589.756	517.28
590.108	397.28
590.46	275.28
590.811	223.28
591.163	189.28
591.514	162.28
591.866	134.28
592.217	107.28
592.569	92.28
592.92	91.28
593.271	79.28
593.623	75.28
593.974	79.28
594.325	89.28
594.676	87.28
595.027	92.28
595.378	87.28
595.729	89.28
596.08	81.28
596.431	94.28
596.781	96.28
597.132	87.28
597.483	82.28
597.833	86.28
598.184	90.28
598.535	70.28
598.885	84.28
599.236	74.28
599.586	76.28
599.936	76.28
600.287	64.28
600.637	76.28
600.987	77.28
601.337	78.28
601.687	82.28
602.037	78.28
602.387	71.28
602.737	75.28
603.087	76.28
603.437	73.28
603.787	73.28
604.137	68.28
604.487	77.28
604.836	67.28
605.186	70.28
605.535	65.28
605.885	59.28
606.234	59.28
606.584	55.28
606.933	66.28
607.283	65.28
607.632	61.28
607.981	61.28
608.33	61.28
608.679	62.28
609.028	56.28
609.377	70.28
609.726	58.28
610.075	64.28
610.424	67.28
610.773	69.28
611.122	58.28
611.471	63.28
611.819	64.28
612.168	70.28
612.517	75.28
612.865	63.28
613.214	63.28
613.562	68.28
613.91	57.28
614.259	59.28
614.607	69.28
614.955	60.28
615.304	65.28
615.652	63.28
616	59.28
616.348	56.28
616.696	54.28
617.044	64.28
617.392	54.28
617.739	66.28
618.087	57.28
618.435	59.28
618.783	57.28
619.13	60.28
619.478	59.28
619.826	58.28
620.173	55.28
620.521	56.28
620.868	59.28
621.215	51.28
621.563	50.28
621.91	51.28
622.257	51.28
622.604	56.28
622.951	62.28
623.298	50.28
623.645	49.28
623.992	50.28
624.339	50.28
624.686	63.28
625.033	61.28
625.38	53.28
625.726	63.28
626.073	54.28
626.42	52.28
626.766	54.28
627.113	51.28
627.459	52.28
627.806	50.28
628.152	56.28
628.498	53.28
628.844	58.28
629.191	64.28
629.537	66.28
629.883	62.28
630.229	56.28
630.575	53.28
630.921	55.28
631.267	61.28
631.613	59.28
631.959	51.28
632.304	57.28
632.65	56.28
632.996	49.28
633.341	56.28
633.687	50.28
634.032	52.28
634.378	53.28
634.723	48.28
635.069	55.28
635.414	57.28
635.759	51.28
636.104	53.28
636.45	56.28
636.795	59.28
637.14	50.28
637.485	53.28
637.83	46.28
638.175	60.28
638.519	55.28
638.864	51.28
639.209	56.28
639.554	47.28
639.898	55.28
640.243	61.28
640.587	48.28
640.932	62.28
641.276	49.28
641.621	51.28
641.965	53.28
642.309	52.28
642.654	52.28
642.998	45.28
643.342	45.28
643.686	47.28
644.03	56.28
644.374	55.28
644.718	56.28
645.062	49.28
645.406	48.28
645.75	59.28
646.093	53.28
646.437	51.28
646.781	52.28
647.124	42.28
647.468	45.28
647.811	56.28
648.155	49.28
648.498	40.28
648.842	53.28
649.185	53.28
649.528	52.28
649.871	45.28
650.214	52.28
650.558	50.28
650.901	48.28
651.244	42.28
651.586	43.28
651.929	42.28
652.272	43.28
652.615	47.28
652.958	46.28
653.3	48.28
653.643	51.28
653.986	45.28
654.328	49.28
654.671	46.28
655.013	56.28
655.355	41.28
655.698	49.28
656.04	52.28
656.382	61.28
656.724	56.28
657.066	49.28
657.409	44.28
657.751	52.28
658.092	54.28
658.434	51.28
658.776	55.28
659.118	46.28
659.46	48.28
659.802	50.28
660.143	49.28
660.485	48.28
660.826	49.28
661.168	46.28
661.509	53.28
661.851	46.28
662.192	45.28
662.533	48.28
662.875	49.28
663.216	41.28
663.557	41.28
663.898	40.28
664.239	40.28
664.58	47.28
664.921	43.28
665.262	40.28
665.603	41.28
665.943	44.28
666.284	42.28
666.625	38.28
666.966	36.28
667.306	41.28
667.647	39.28
667.987	46.28
668.327	46.28
668.668	43.28
669.008	38.28
669.348	43.28
669.689	35.28
670.029	41.28
670.369	36.28
670.709	39.28
671.049	36.28
671.389	42.28
671.729	40.28
672.069	41.28
672.409	37.28
672.748	33.28
673.088	37.28
673.428	40.28
673.767	34.28
674.107	37.28
674.446	40.28
674.786	29.28
675.125	40.28
675.464	32.28
675.804	37.28
676.143	40.28
676.482	29.28
676.821	41.28
677.16	31.28
677.499	37.28
677.838	42.28
678.177	37.28
678.516	33.28
678.855	35.28
679.194	32.28
679.532	31.28
679.871	33.28
680.21	43.28
680.548	39.28
680.887	30.28
681.225	33.28
681.564	33.28
681.902	36.28
682.24	33.28
682.578	39.28
682.917	33.28
683.255	34.28
683.593	34.28
683.931	37.28
684.269	30.28
684.607	35.28
684.945	35.28
685.282	38.28
685.62	32.28
685.958	40.28
686.296	34.28
686.633	31.28
686.971	30.28
687.308	31.28
687.646	36.28
687.983	24.28
688.321	32.28
688.658	23.28
688.995	38.28
689.332	28.28
689.669	33.28
690.006	31.28
690.344	28.28
690.681	29.28
691.017	36.28
691.354	32.28
691.691	34.28
692.028	29.28
692.365	37.28
692.701	27.28
693.038	34.28
693.375	32.28
693.711	43.28
694.047	29.28
694.384	30.28
694.72	31.28
695.057	33.28
695.393	28.28
695.729	28.28
696.065	38.28
696.401	31.28
696.737	31.28
697.073	32.28
697.409	27.28
697.745	29.28
698.081	27.28
698.417	30.28
698.752	34.28
699.088	26.28
699.424	33.28
699.759	37.28
700.095	31.28
700.43	24.28
700.766	30.28
701.101	31.28
701.436	31.28
701.771	31.28
702.107	31.28
702.442	28.28
702.777	32.28
703.112	30.28
703.447	29.28
703.782	29.28
704.117	31.28
704.451	30.28
704.786	29.28
705.121	36.28
705.456	29.28
705.79	31.28
706.125	35.28
706.459	24.28
706.794	34.28
707.128	35.28
707.462	25.28
707.797	31.28
708.131	28.28
708.465	24.28
708.799	30.28
709.133	29.28
709.467	21.28
709.801	29.28
710.135	24.28
710.469	32.28
710.803	25.28
711.137	24.28
711.47	27.28
711.804	33.28
712.138	30.28
712.471	31.28
712.805	27.28
713.138	29.28
713.471	29.28
713.805	33.28
714.138	29.28
714.471	29.28
714.804	24.28
715.138	31.28
715.471	27.28
715.804	20.28
716.137	34.28
716.469	23.28
716.802	34.28
717.135	26.28
717.468	26.28
717.801	27.28
718.133	26.28
718.466	31.28
718.798	22.28
719.131	29.28
719.463	29.28
719.795	25.28
720.128	22.28
720.46	28.28
720.792	29.28
721.124	24.28
721.456	23.28
721.789	19.28
722.121	19.28
722.452	30.28
722.784	26.28
723.116	32.28
723.448	26.28
723.78	25.28
724.111	20.28
724.443	26.28
724.774	26.28
725.106	36.28
725.437	22.28
725.769	25.28
726.1	29.28
726.431	18.28
726.763	27.28
727.094	34.28
727.425	23.28
727.756	27.28
728.087	28.28
728.418	27.28
728.749	22.28
729.08	28.28
729.41	30.28
729.741	27.28
730.072	33.28
730.403	29.28
730.733	24.28
731.064	23.28
731.394	24.28
731.725	18.28
732.055	26.28
732.385	23.28
732.715	21.28
733.046	16.28
733.376	29.28
733.706	23.28
734.036	22.28
734.366	22.28
734.696	24.28
735.026	26.28
735.355	24.28
735.685	23.28
736.015	22.28
736.345	24.28
736.674	25.28
737.004	23.28
737.333	23.28
737.663	21.28
737.992	25.28
738.321	31.28
738.651	26.28
738.98	30.28
739.309	20.28
739.638	23.28
739.967	28.28
740.296	25.28
740.625	28.28
740.954	25.28
741.283	23.28
741.612	29.28
741.94	29.28
742.269	27.28
742.598	30.28
742.926	25.28
743.255	27.28
743.583	25.28
743.912	27.28
744.24	30.28
744.568	25.28
744.896	20.28
745.225	28.28
745.553	26.28
745.881	25.28
746.209	20.28
746.537	23.28
746.865	26.28
747.192	20.28
747.52	29.28
747.848	27.28
748.176	20.28
748.503	24.28
748.831	32.28
749.158	24.28
749.486	19.28
749.813	22.28
750.141	25.28
750.468	25.28
750.795	27.28
751.122	22.28
751.449	28.28
751.777	23.28
752.104	26.28
752.431	26.28
752.757	24.28
753.084	22.28
753.411	24.28
753.738	27.28
754.065	23.28
754.391	22.28
754.718	27.28
755.044	25.28
755.371	23.28
755.697	21.28
756.024	23.28
756.35	24.28
756.676	24.28
757.002	24.28
757.328	25.28
757.654	16.28
757.981	16.28
758.306	22.28
758.632	29.28
758.958	22.28
759.284	24.28
759.61	19.28
759.935	26.28
760.261	28.28
760.587	24.28
760.912	23.28
761.238	29.28
761.563	24.28
761.888	23.28
762.214	26.28
762.539	28.28
762.864	26.28
763.189	17.28
763.514	26.28
763.839	20.28
764.164	26.28
764.489	19.28
764.814	27.28
765.139	22.28
765.464	22.28
765.788	22.28
766.113	33.28
766.438	38.28
766.762	45.28
767.087	32.28
767.411	32.28
767.735	29.28
768.06	20.28
768.384	23.28
768.708	28.28
769.032	18.28
769.356	22.28
769.68	24.28
770.004	32.28
770.328	28.28
770.652	23.28
770.976	20.28
771.3	22.28
771.623	21.28
771.947	22.28
772.271	21.28
772.594	20.28
772.917	19.28
773.241	24.28
773.564	24.28
773.888	23.28
774.211	26.28
774.534	24.28
774.857	19.28
775.18	24.28
775.503	17.28
775.826	19.28
776.149	18.28
776.472	22.28
776.795	31.28
777.117	28.28
777.44	26.28
777.763	17.28
778.085	23.28
778.408	27.28
778.73	21.28
779.053	17.28
779.375	21.28
779.697	13.28
780.019	17.28
780.342	20.28
780.664	24.28
780.986	16.28
781.308	26.28
781.63	19.28
781.952	20.28
782.273	22.28
782.595	19.28
782.917	25.28
783.238	20.28
783.56	20.28
783.882	14.28
784.203	22.28
784.525	22.28
784.846	25.28
785.167	16.28
785.488	22.28
785.81	23.28
786.131	20.28
786.452	26.28
786.773	21.28
787.094	18.28
787.415	25.28
787.736	22.28
788.057	17.28
788.377	16.28
788.698	23.28
789.019	21.28
789.339	20.28
789.66	19.28
789.98	17.28
790.301	17.28
790.621	15.28
790.941	18.28
791.261	22.28
791.582	20.28
791.902	24.28
792.222	23.28
792.542	16.28
792.862	25.28
793.182	21.28
793.502	20.28
793.821	20.28
794.141	21.28
794.461	22.28
794.78	22.28
795.1	21.28
795.419	22.28
795.739	20.28
796.058	21.28
796.378	23.28
796.697	20.28
797.016	21.28
797.335	19.28
797.654	21.28
797.973	23.28
798.292	16.28
798.611	24.28
798.93	19.28
799.249	18.28
799.568	19.28
799.886	18.28
800.205	17.28
800.524	13.28
800.842	25.28
801.161	15.28
801.479	16.28
801.797	17.28
802.116	20.28
802.434	19.28
802.752	20.28
803.07	22.28
803.388	23.28
803.706	15.28
804.024	20.28
804.342	18.28
804.66	18.28
804.978	15.28
805.295	13.28
805.613	20.28
805.931	21.28
806.248	16.28
806.566	23.28
806.883	19.28
807.201	18.28
807.518	19.28
807.835	18.28
808.152	14.28
808.469	23.28
808.787	25.28
809.104	22.28
809.421	23.28
809.737	19.28
810.054	25.28
810.371	20.28
810.688	22.28
811.005	23.28
811.321	23.28
811.638	16.28
811.954	13.28
812.271	20.28
812.587	15.28
812.903	18.28
813.22	20.28
813.536	18.28
813.852	23.28
814.168	21.28
814.484	17.28
814.8	19.28
815.116	24.28
815.432	15.28
815.748	18.28
816.064	17.28
816.379	19.28
816.695	23.28
817.01	18.28
817.326	19.28
817.641	20.28
817.957	20.28
818.272	20.28
818.588	25.28
818.903	16.28
819.218	23.28
819.533	17.28
819.848	25.28
820.163	19.28
820.478	17.28
820.793	21.28
821.108	16.28
821.422	17.28
821.737	17.28
822.052	21.28
822.366	19.28
822.681	16.28
822.995	27.28
823.31	15.28
823.624	17.28
823.939	18.28
824.253	16.28
824.567	17.28
824.881	18.28
825.195	16.28
825.509	20.28
825.823	21.28
826.137	20.28
826.451	18.28
826.765	20.28
827.078	23.28
827.392	23.28
827.706	20.28
828.019	15.28
828.333	21.28
828.646	20.28
828.959	24.28
829.273	17.28
829.586	23.28
829.899	21.28
830.212	18.28
830.525	18.28
830.838	18.28
831.151	20.28
831.464	22.28
831.777	18.28
832.09	17.28
832.403	22.28
832.715	19.28
833.028	19.28
833.34	21.28
833.653	16.28
833.965	8.28
834.278	21.28
834.59	11.28
834.902	19.28
835.214	21.28
835.526	19.28
835.839	13.28
836.151	18.28
836.462	15.28
836.774	18.28
837.086	19.28
837.398	20.28
837.71	20.28
838.021	18.28
838.333	20.28
838.644	17.28
838.956	17.28
839.267	19.28
839.579	20.28
839.89	26.28
840.201	23.28
840.512	17.28
840.824	17.28
841.135	19.28
841.446	17.28
841.757	15.28
842.068	16.28
842.378	17.28
842.689	17.28
843	19.28
843.31	20.28
843.621	23.28
843.932	11.28
844.242	20.28
844.553	22.28
844.863	17.28
845.173	14.28
845.483	21.28
845.794	16.28
846.104	17.28
846.414	18.28
846.724	13.28
847.034	22.28
847.344	23.28
847.653	16.28
847.963	18.28
848.273	20.28
848.582	19.28
848.892	16.28
849.202	19.28
849.511	19.28
849.82	17.28
850.13	21.28
850.439	22.28
850.748	20.28
851.057	27.28
851.367	15.28
851.676	20.28
851.985	18.28
852.294	16.28
852.602	20.28
852.911	16.28
853.22	17.28
853.529	17.28
853.837	20.28
854.146	18.28
854.454	16.28
854.763	17.28
855.071	25.28
855.38	18.28
855.688	14.28
855.996	16.28
856.304	19.28
856.612	15.28
856.92	15.28
857.228	19.28
857.536	19.28
857.844	18.28
858.152	14.28
858.46	17.28
858.767	19.28
859.075	16.28
859.382	22.28
859.69	20.28
859.997	22.28
860.305	19.28
860.612	22.28
860.919	15.28
861.226	15.28
861.534	15.28
861.841	15.28
862.148	24.28
862.455	16.28
862.761	22.28
863.068	20.28
863.375	15.28
863.682	18.28
863.988	19.28
864.295	18.28
864.602	19.28
864.908	20.28
865.214	17.28
865.521	22.28
865.827	16.28
866.133	23.28
866.439	14.28
866.746	19.28
867.052	14.28
867.358	15.28
867.663	19.28
867.969	16.28
868.275	14.28
868.581	12.28
868.887	25.28
869.192	21.28
869.498	22.28
869.803	20.28
870.109	22.28
870.414	16.28
870.719	12.28
871.025	18.28
871.33	19.28
871.635	20.28
871.94	9.28
872.245	15.28
872.55	20.28
872.855	18.28
873.16	15.28
873.465	20.28
873.769	17.28
874.074	23.28
874.378	20.28
874.683	18.28
874.987	22.28
875.292	17.28
875.596	21.28
875.901	11.28
876.205	16.28
876.509	16.28
876.813	16.28
877.117	19.28
877.421	21.28
877.725	13.28
878.029	18.28
878.333	17.28
878.636	15.28
878.94	16.28
879.244	12.28
879.547	20.28
879.851	20.28
880.154	21.28
880.458	19.28
880.761	23.28
881.064	19.28
881.367	21.28
881.67	17.28
881.973	11.28
882.276	21.28
882.579	28.28
882.882	16.28
883.185	12.28
883.488	21.28
883.791	24.28
884.093	20.28
884.396	16.28
884.698	17.28
885.001	18.28
885.303	13.28
885.606	15.28
885.908	20.28
886.21	22.28
886.512	16.28
886.814	21.28
887.116	17.28
887.418	16.28
887.72	20.28
888.022	22.28
888.324	17.28
888.626	16.28
888.927	15.28
889.229	20.28
889.53	18.28
889.832	22.28
890.133	18.28
890.435	23.28
890.736	15.28
891.037	16.28
891.338	20.28
891.639	16.28
891.94	16.28
892.241	18.28
892.542	19.28
892.843	20.28
893.144	18.28
893.445	15.28
893.745	26.28
894.046	25.28
894.347	23.28
894.647	13.28
894.947	18.28
895.248	16.28
895.548	22.28
895.848	20.28
896.149	15.28
896.449	16.28
896.749	17.28
897.049	19.28
897.349	20.28
897.649	18.28
897.948	18.28
898.248	16.28
898.548	17.28
898.847	16.28
899.147	16.28
899.446	16.28
899.746	18.28
900.045	16.28
900.345	16.28
900.644	17.28
900.943	17.28
901.242	20.28
901.541	19.28
901.84	16.28
902.139	13.28
902.438	18.28
902.737	17.28
903.036	18.28
903.334	18.28
903.633	21.28
903.932	18.28
