Data from Cr-100ng_USB2E8911_001.txt Node
Date: Mon May 20 13:48:57 PDT 2019
User: admin
Spectrometer: USB2E891
Trigger mode: 1
Integration Time (sec): 1.000000E-1
Scans to average: 1
Electric dark correction enabled: true
Nonlinearity correction enabled: false
Boxcar width: 0
XAxis mode: Wavelengths
Number of Pixels in Spectrum: 2048
>>>>>Begin Spectral Data<<<<<
183.106	-232.61
183.502	4.39
183.898	7.39
184.293	10.39
184.689	12.39
185.085	17.39
185.48	16.39
185.876	9.39
186.271	20.39
186.667	22.39
187.062	11.39
187.457	14.39
187.853	11.39
188.248	8.39
188.643	15.39
189.039	17.39
189.434	16.39
189.829	17.39
190.224	10.39
190.619	12.39
191.014	17.39
191.409	18.39
191.805	14.39
192.199	18.39
192.594	16.39
192.989	20.39
193.384	16.39
193.779	20.39
194.174	22.39
194.569	17.39
194.964	22.39
195.358	21.39
195.753	24.39
196.148	22.39
196.542	22.39
196.937	23.39
197.331	26.39
197.726	23.39
198.12	20.39
198.515	18.39
198.909	20.39
199.304	21.39
199.698	23.39
200.092	23.39
200.487	22.39
200.881	18.39
201.275	24.39
201.669	17.39
202.063	24.39
202.458	19.39
202.852	25.39
203.246	16.39
203.64	18.39
204.034	24.39
204.428	26.39
204.822	25.39
205.216	21.39
205.609	14.39
206.003	19.39
206.397	24.39
206.791	23.39
207.184	29.39
207.578	18.39
207.972	18.39
208.365	26.39
208.759	31.39
209.153	21.39
209.546	25.39
209.94	26.39
210.333	19.39
210.726	31.39
211.12	27.39
211.513	27.39
211.906	24.39
212.3	25.39
212.693	25.39
213.086	28.39
213.479	22.39
213.873	24.39
214.266	26.39
214.659	17.39
215.052	21.39
215.445	25.39
215.838	30.39
216.231	24.39
216.624	19.39
217.016	35.39
217.409	25.39
217.802	22.39
218.195	27.39
218.588	30.39
218.98	27.39
219.373	20.39
219.766	33.39
220.158	28.39
220.551	30.39
220.943	33.39
221.336	31.39
221.728	24.39
222.121	28.39
222.513	30.39
222.906	28.39
223.298	34.39
223.69	28.39
224.082	22.39
224.475	35.39
224.867	36.39
225.259	36.39
225.651	34.39
226.043	28.39
226.435	29.39
226.827	32.39
227.219	32.39
227.611	26.39
228.003	28.39
228.395	26.39
228.787	29.39
229.179	29.39
229.57	30.39
229.962	30.39
230.354	31.39
230.746	28.39
231.137	36.39
231.529	34.39
231.92	34.39
232.312	31.39
232.703	39.39
233.095	36.39
233.486	34.39
233.878	30.39
234.269	32.39
234.66	43.39
235.052	33.39
235.443	34.39
235.834	39.39
236.225	35.39
236.616	38.39
237.008	40.39
237.399	39.39
237.79	29.39
238.181	46.39
238.572	49.39
238.963	41.39
239.354	46.39
239.744	50.39
240.135	47.39
240.526	43.39
240.917	47.39
241.308	45.39
241.698	31.39
242.089	46.39
242.48	48.39
242.87	48.39
243.261	48.39
243.651	47.39
244.042	44.39
244.432	38.39
244.823	52.39
245.213	63.39
245.603	64.39
245.994	65.39
246.384	57.39
246.774	70.39
247.164	60.39
247.555	64.39
247.945	73.39
248.335	86.39
248.725	86.39
249.115	78.39
249.505	71.39
249.895	69.39
250.285	60.39
250.675	62.39
251.065	64.39
251.454	75.39
251.844	75.39
252.234	87.39
252.624	71.39
253.013	73.39
253.403	64.39
253.793	58.39
254.182	68.39
254.572	84.39
254.961	109.39
255.351	108.39
255.74	98.39
256.13	72.39
256.519	80.39
256.908	87.39
257.298	90.39
257.687	88.39
258.076	89.39
258.465	94.39
258.854	68.39
259.243	76.39
259.633	72.39
260.022	88.39
260.411	109.39
260.8	108.39
261.188	116.39
261.577	90.39
261.966	96.39
262.355	93.39
262.744	87.39
263.133	94.39
263.521	94.39
263.91	81.39
264.299	88.39
264.687	107.39
265.076	125.39
265.464	168.39
265.853	198.39
266.241	206.39
266.63	196.39
267.018	203.39
267.407	211.39
267.795	216.39
268.183	167.39
268.571	149.39
268.96	131.39
269.348	159.39
269.736	193.39
270.124	185.39
270.512	153.39
270.9	141.39
271.288	142.39
271.676	198.39
272.064	212.39
272.452	176.39
272.84	137.39
273.228	100.39
273.616	102.39
274.003	136.39
274.391	196.39
274.779	231.39
275.166	227.39
275.554	213.39
275.941	251.39
276.329	291.39
276.717	269.39
277.104	222.39
277.491	189.39
277.879	152.39
278.266	119.39
278.653	128.39
279.041	131.39
279.428	142.39
279.815	135.39
280.202	127.39
280.589	98.39
280.977	98.39
281.364	116.39
281.751	128.39
282.138	154.39
282.525	181.39
282.912	258.39
283.298	323.39
283.685	325.39
284.072	312.39
284.459	340.39
284.846	334.39
285.232	356.39
285.619	408.39
286.006	448.39
286.392	462.39
286.779	405.39
287.165	317.39
287.552	320.39
287.938	301.39
288.325	229.39
288.711	176.39
289.097	211.39
289.484	224.39
289.87	191.39
290.256	139.39
290.642	139.39
291.028	167.39
291.414	157.39
291.801	146.39
292.187	160.39
292.573	152.39
292.959	157.39
293.344	200.39
293.73	221.39
294.116	273.39
294.502	312.39
294.888	258.39
295.274	143.39
295.659	118.39
296.045	125.39
296.431	174.39
296.816	201.39
297.202	219.39
297.587	249.39
297.973	277.39
298.358	346.39
298.744	311.39
299.129	303.39
299.514	281.39
299.9	235.39
300.285	216.39
300.67	262.39
301.055	409.39
301.44	565.39
301.825	593.39
302.211	492.39
302.596	357.39
302.981	263.39
303.366	223.39
303.75	231.39
304.135	265.39
304.52	294.39
304.905	274.39
305.29	233.39
305.675	150.39
306.059	109.39
306.444	122.39
306.829	110.39
307.213	135.39
307.598	124.39
307.982	121.39
308.367	130.39
308.751	127.39
309.135	128.39
309.52	120.39
309.904	125.39
310.288	127.39
310.673	153.39
311.057	180.39
311.441	255.39
311.825	349.39
312.209	393.39
312.593	368.39
312.977	355.39
313.361	295.39
313.745	214.39
314.129	164.39
314.513	167.39
314.897	162.39
315.281	164.39
315.665	133.39
316.048	152.39
316.432	160.39
316.816	151.39
317.199	168.39
317.583	224.39
317.966	255.39
318.35	212.39
318.733	185.39
319.117	179.39
319.5	221.39
319.884	247.39
320.267	256.39
320.65	300.39
321.033	323.39
321.417	321.39
321.8	292.39
322.183	190.39
322.566	148.39
322.949	170.39
323.332	175.39
323.715	190.39
324.098	248.39
324.481	318.39
324.864	323.39
325.246	242.39
325.629	191.39
326.012	183.39
326.395	197.39
326.777	231.39
327.16	239.39
327.543	217.39
327.925	163.39
328.308	153.39
328.69	157.39
329.073	171.39
329.455	212.39
329.837	260.39
330.22	254.39
330.602	226.39
330.984	222.39
331.366	224.39
331.748	194.39
332.131	220.39
332.513	245.39
332.895	276.39
333.277	317.39
333.659	354.39
334.041	372.39
334.423	306.39
334.804	251.39
335.186	217.39
335.568	247.39
335.95	285.39
336.332	314.39
336.713	329.39
337.095	328.39
337.476	314.39
337.858	303.39
338.239	267.39
338.621	205.39
339.002	182.39
339.384	180.39
339.765	220.39
340.146	257.39
340.528	294.39
340.909	303.39
341.29	274.39
341.671	271.39
342.053	301.39
342.434	287.39
342.815	259.39
343.196	238.39
343.577	235.39
343.958	228.39
344.338	212.39
344.719	205.39
345.1	196.39
345.481	188.39
345.862	175.39
346.242	169.39
346.623	153.39
347.004	145.39
347.384	158.39
347.765	174.39
348.145	183.39
348.526	170.39
348.906	197.39
349.287	221.39
349.667	209.39
350.047	164.39
350.428	183.39
350.808	213.39
351.188	178.39
351.568	179.39
351.948	157.39
352.328	185.39
352.708	189.39
353.088	182.39
353.468	198.39
353.848	231.39
354.228	274.39
354.608	272.39
354.988	243.39
355.368	225.39
355.747	213.39
356.127	230.39
356.507	314.39
356.886	461.39
357.266	669.39
357.645	834.39
358.025	806.39
358.404	618.39
358.784	652.39
359.163	738.39
359.542	731.39
359.922	663.39
360.301	715.39
360.68	707.39
361.059	592.39
361.439	569.39
361.818	532.39
362.197	394.39
362.576	304.39
362.955	298.39
363.334	340.39
363.713	370.39
364.091	390.39
364.47	356.39
364.849	299.39
365.228	273.39
365.606	235.39
365.985	227.39
366.364	211.39
366.742	190.39
367.121	215.39
367.499	255.39
367.878	323.39
368.256	374.39
368.635	333.39
369.013	279.39
369.391	204.39
369.77	213.39
370.148	306.39
370.526	378.39
370.904	405.39
371.282	375.39
371.66	333.39
372.038	260.39
372.416	237.39
372.794	227.39
373.172	260.39
373.55	294.39
373.928	326.39
374.306	368.39
374.683	369.39
375.061	430.39
375.439	572.39
375.816	656.39
376.194	648.39
376.572	582.39
376.949	533.39
377.327	511.39
377.704	508.39
378.081	527.39
378.459	560.39
378.836	670.39
379.213	750.39
379.591	705.39
379.968	548.39
380.345	472.39
380.722	502.39
381.099	601.39
381.476	694.39
381.853	654.39
382.23	600.39
382.607	554.39
382.984	684.39
383.361	780.39
383.738	848.39
384.114	825.39
384.491	874.39
384.868	885.39
385.244	785.39
385.621	717.39
385.997	746.39
386.374	963.39
386.75	1156.39
387.127	1065.39
387.503	936.39
387.88	896.39
388.256	841.39
388.632	672.39
389.008	469.39
389.385	365.39
389.761	340.39
390.137	330.39
390.513	347.39
390.889	397.39
391.265	456.39
391.641	537.39
392.017	574.39
392.393	630.39
392.768	807.39
393.144	987.39
393.52	944.39
393.896	722.39
394.271	717.39
394.647	804.39
395.022	884.39
395.398	691.39
395.773	599.39
396.149	670.39
396.524	886.39
396.9	853.39
397.275	708.39
397.65	668.39
398.026	699.39
398.401	776.39
398.776	801.39
399.151	817.39
399.526	776.39
399.901	704.39
400.276	886.39
400.651	1256.39
401.026	1424.39
401.401	1208.39
401.776	819.39
402.151	586.39
402.525	458.39
402.9	495.39
403.275	551.39
403.649	622.39
404.024	748.39
404.399	806.39
404.773	722.39
405.148	490.39
405.522	375.39
405.896	387.39
406.271	549.39
406.645	944.39
407.019	1474.39
407.393	1688.39
407.768	1425.39
408.142	1035.39
408.516	815.39
408.89	678.39
409.264	537.39
409.638	583.39
410.012	673.39
410.386	706.39
410.76	561.39
411.133	505.39
411.507	563.39
411.881	667.39
412.255	725.39
412.628	707.39
413.002	571.39
413.375	591.39
413.749	626.39
414.122	568.39
414.496	519.39
414.869	494.39
415.243	464.39
415.616	418.39
415.989	375.39
416.363	378.39
416.736	468.39
417.109	503.39
417.482	445.39
417.855	398.39
418.228	375.39
418.601	324.39
418.974	361.39
419.347	403.39
419.72	458.39
420.093	442.39
420.465	420.39
420.838	400.39
421.211	378.39
421.583	407.39
421.956	425.39
422.329	448.39
422.701	463.39
423.074	434.39
423.446	527.39
423.818	591.39
424.191	686.39
424.563	806.39
424.935	1152.39
425.308	1441.39
425.68	1476.39
426.052	1124.39
426.424	1208.39
426.796	1529.39
427.168	1856.39
427.54	1812.39
427.912	1495.39
428.284	1304.39
428.656	1691.39
429.028	2232.39
429.399	2256.39
429.771	2023.39
430.143	1620.39
430.514	1222.39
430.886	794.39
431.258	536.39
431.629	395.39
432.001	375.39
432.372	393.39
432.743	560.39
433.115	747.39
433.486	891.39
433.857	939.39
434.229	931.39
434.6	976.39
434.971	952.39
435.342	858.39
435.713	678.39
436.084	597.39
436.455	483.39
436.826	479.39
437.197	428.39
437.568	413.39
437.939	420.39
438.309	419.39
438.68	406.39
439.051	342.39
439.421	310.39
439.792	285.39
440.163	306.39
440.533	328.39
440.903	372.39
441.274	352.39
441.644	378.39
442.015	397.39
442.385	479.39
442.755	529.39
443.125	517.39
443.496	441.39
443.866	395.39
444.236	362.39
444.606	315.39
444.976	315.39
445.346	327.39
445.716	331.39
446.085	356.39
446.455	351.39
446.825	331.39
447.195	299.39
447.565	320.39
447.934	369.39
448.304	405.39
448.673	440.39
449.043	446.39
449.412	436.39
449.782	429.39
450.151	388.39
450.521	346.39
450.89	344.39
451.259	355.39
451.628	357.39
451.998	396.39
452.367	470.39
452.736	447.39
453.105	421.39
453.474	425.39
453.843	456.39
454.212	488.39
454.581	450.39
454.95	406.39
455.318	395.39
455.687	392.39
456.056	356.39
456.424	339.39
456.793	353.39
457.162	346.39
457.53	347.39
457.899	329.39
458.267	338.39
458.636	359.39
459.004	389.39
459.372	421.39
459.741	416.39
460.109	440.39
460.477	391.39
460.845	461.39
461.213	505.39
461.581	514.39
461.949	477.39
462.317	420.39
462.685	396.39
463.053	352.39
463.421	328.39
463.789	360.39
464.157	491.39
464.524	608.39
464.892	688.39
465.26	710.39
465.627	804.39
465.995	783.39
466.362	642.39
466.73	511.39
467.097	469.39
467.464	513.39
467.832	612.39
468.199	622.39
468.566	485.39
468.933	428.39
469.301	414.39
469.668	419.39
470.035	365.39
470.402	349.39
470.769	316.39
471.136	326.39
471.503	332.39
471.869	365.39
472.236	341.39
472.603	353.39
472.97	333.39
473.336	329.39
473.703	329.39
474.07	359.39
474.436	379.39
474.803	364.39
475.169	419.39
475.536	443.39
475.902	438.39
476.268	348.39
476.635	318.39
477.001	299.39
477.367	271.39
477.733	249.39
478.099	263.39
478.465	267.39
478.831	289.39
479.197	292.39
479.563	306.39
479.929	341.39
480.295	353.39
480.661	333.39
481.026	342.39
481.392	323.39
481.758	331.39
482.123	367.39
482.489	354.39
482.855	356.39
483.22	351.39
483.585	453.39
483.951	756.39
484.316	888.39
484.682	866.39
485.047	599.39
485.412	536.39
485.777	504.39
486.142	464.39
486.507	426.39
486.873	383.39
487.238	385.39
487.602	378.39
487.967	487.39
488.332	664.39
488.697	789.39
489.062	736.39
489.427	620.39
489.791	637.39
490.156	614.39
490.521	507.39
490.885	447.39
491.25	469.39
491.614	675.39
491.979	820.39
492.343	904.39
492.707	684.39
493.072	595.39
493.436	535.39
493.8	489.39
494.164	437.39
494.528	402.39
494.892	382.39
495.256	411.39
495.62	403.39
495.984	395.39
496.348	392.39
496.712	396.39
497.076	418.39
497.44	469.39
497.803	598.39
498.167	711.39
498.531	724.39
498.894	630.39
499.258	589.39
499.621	585.39
499.985	723.39
500.348	881.39
500.711	941.39
501.075	979.39
501.438	875.39
501.801	802.39
502.164	592.39
502.527	513.39
502.891	439.39
503.254	386.39
503.617	393.39
503.98	400.39
504.342	430.39
504.705	730.39
505.068	1198.39
505.431	1369.39
505.794	1093.39
506.156	841.39
506.519	887.39
506.882	949.39
507.244	893.39
507.607	662.39
507.969	544.39
508.331	470.39
508.694	426.39
509.056	382.39
509.418	356.39
509.781	341.39
510.143	357.39
510.505	383.39
510.867	421.39
511.229	426.39
511.591	455.39
511.953	464.39
512.315	472.39
512.677	460.39
513.039	416.39
513.401	396.39
513.762	373.39
514.124	400.39
514.486	370.39
514.847	377.39
515.209	381.39
515.57	380.39
515.932	383.39
516.293	365.39
516.654	341.39
517.016	344.39
517.377	347.39
517.738	401.39
518.1	502.39
518.461	554.39
518.822	531.39
519.183	562.39
519.544	811.39
519.905	2072.39
520.266	3661.39
520.627	3862.39
520.987	3862.39
521.348	3862.39
521.709	3862.39
522.07	3133.39
522.43	2042.39
522.791	1597.39
523.151	1003.39
523.512	712.39
523.872	618.39
524.233	584.39
524.593	574.39
524.953	540.39
525.314	524.39
525.674	562.39
526.034	652.39
526.394	714.39
526.754	687.39
527.114	674.39
527.474	656.39
527.834	620.39
528.194	513.39
528.554	458.39
528.914	483.39
529.274	719.39
529.634	928.39
529.993	1001.39
530.353	796.39
530.712	597.39
531.072	524.39
531.431	467.39
531.791	440.39
532.15	465.39
532.51	522.39
532.869	556.39
533.228	527.39
533.587	488.39
533.947	556.39
534.306	759.39
534.665	889.39
535.024	838.39
535.383	655.39
535.742	533.39
536.101	469.39
536.46	415.39
536.818	395.39
537.177	374.39
537.536	377.39
537.895	367.39
538.253	365.39
538.612	352.39
538.97	351.39
539.329	335.39
539.687	324.39
540.046	368.39
540.404	561.39
540.762	764.39
541.12	809.39
541.479	681.39
541.837	495.39
542.195	434.39
542.553	407.39
542.911	378.39
543.269	375.39
543.627	354.39
543.985	329.39
544.343	296.39
544.7	285.39
545.058	301.39
545.416	294.39
545.774	298.39
546.131	281.39
546.489	277.39
546.846	272.39
547.204	285.39
547.561	304.39
547.918	299.39
548.276	305.39
548.633	315.39
548.99	370.39
549.347	376.39
549.705	379.39
550.062	361.39
550.419	356.39
550.776	375.39
551.133	507.39
551.49	547.39
551.846	508.39
552.203	390.39
552.56	334.39
552.917	320.39
553.273	311.39
553.63	296.39
553.987	284.39
554.343	260.39
554.7	251.39
555.056	236.39
555.412	229.39
555.769	233.39
556.125	228.39
556.481	230.39
556.837	239.39
557.194	245.39
557.55	237.39
557.906	234.39
558.262	232.39
558.618	237.39
558.974	244.39
559.329	233.39
559.685	227.39
560.041	235.39
560.397	253.39
560.752	250.39
561.108	238.39
561.464	243.39
561.819	238.39
562.175	240.39
562.53	251.39
562.886	275.39
563.241	274.39
563.596	276.39
563.951	262.39
564.307	295.39
564.662	325.39
565.017	325.39
565.372	308.39
565.727	282.39
566.082	280.39
566.437	276.39
566.792	260.39
567.147	275.39
567.501	260.39
567.856	273.39
568.211	235.39
568.565	217.39
568.92	224.39
569.275	218.39
569.629	225.39
569.984	233.39
570.338	215.39
570.692	220.39
571.047	212.39
571.401	205.39
571.755	206.39
572.109	200.39
572.463	210.39
572.817	223.39
573.171	245.39
573.525	269.39
573.879	268.39
574.233	240.39
574.587	219.39
574.941	227.39
575.295	205.39
575.648	211.39
576.002	192.39
576.355	195.39
576.709	202.39
577.062	195.39
577.416	193.39
577.769	195.39
578.123	220.39
578.476	258.39
578.829	287.39
579.182	296.39
579.536	287.39
579.889	287.39
580.242	316.39
580.595	306.39
580.948	282.39
581.301	228.39
581.654	219.39
582.006	206.39
582.359	204.39
582.712	193.39
583.065	193.39
583.417	191.39
583.77	189.39
584.122	192.39
584.475	205.39
584.827	195.39
585.18	197.39
585.532	200.39
585.884	199.39
586.237	197.39
586.589	205.39
586.941	207.39
587.293	189.39
587.645	179.39
587.997	194.39
588.349	228.39
588.701	307.39
589.053	365.39
589.405	392.39
589.756	339.39
590.108	296.39
590.46	237.39
590.811	216.39
591.163	211.39
591.514	191.39
591.866	176.39
592.217	178.39
592.569	170.39
592.92	166.39
593.271	160.39
593.623	163.39
593.974	172.39
594.325	178.39
594.676	171.39
595.027	177.39
595.378	175.39
595.729	168.39
596.08	177.39
596.431	177.39
596.781	183.39
597.132	173.39
597.483	166.39
597.833	169.39
598.184	165.39
598.535	151.39
598.885	157.39
599.236	134.39
599.586	148.39
599.936	138.39
600.287	129.39
600.637	145.39
600.987	137.39
601.337	145.39
601.687	142.39
602.037	137.39
602.387	136.39
602.737	144.39
603.087	133.39
603.437	126.39
603.787	138.39
604.137	131.39
604.487	134.39
604.836	128.39
605.186	132.39
605.535	128.39
605.885	134.39
606.234	145.39
606.584	136.39
606.933	147.39
607.283	130.39
607.632	136.39
607.981	131.39
608.33	134.39
608.679	128.39
609.028	128.39
609.377	129.39
609.726	136.39
610.075	117.39
610.424	134.39
610.773	122.39
611.122	126.39
611.471	122.39
611.819	128.39
612.168	131.39
612.517	131.39
612.865	143.39
613.214	140.39
613.562	123.39
613.91	128.39
614.259	123.39
614.607	123.39
614.955	124.39
615.304	127.39
615.652	122.39
616	123.39
616.348	118.39
616.696	121.39
617.044	112.39
617.392	107.39
617.739	111.39
618.087	115.39
618.435	119.39
618.783	117.39
619.13	103.39
619.478	114.39
619.826	105.39
620.173	98.39
620.521	99.39
620.868	104.39
621.215	104.39
621.563	98.39
621.91	91.39
622.257	91.39
622.604	97.39
622.951	100.39
623.298	98.39
623.645	97.39
623.992	109.39
624.339	100.39
624.686	101.39
625.033	116.39
625.38	133.39
625.726	119.39
626.073	114.39
626.42	112.39
626.766	113.39
627.113	113.39
627.459	99.39
627.806	107.39
628.152	107.39
628.498	116.39
628.844	118.39
629.191	126.39
629.537	113.39
629.883	123.39
630.229	122.39
630.575	121.39
630.921	106.39
631.267	111.39
631.613	121.39
631.959	110.39
632.304	109.39
632.65	118.39
632.996	101.39
633.341	96.39
633.687	102.39
634.032	103.39
634.378	95.39
634.723	96.39
635.069	91.39
635.414	104.39
635.759	94.39
636.104	102.39
636.45	96.39
636.795	99.39
637.14	97.39
637.485	95.39
637.83	91.39
638.175	91.39
638.519	102.39
638.864	106.39
639.209	107.39
639.554	118.39
639.898	117.39
640.243	108.39
640.587	118.39
640.932	123.39
641.276	106.39
641.621	103.39
641.965	106.39
642.309	106.39
642.654	101.39
642.998	108.39
643.342	97.39
643.686	105.39
644.03	106.39
644.374	111.39
644.718	117.39
645.062	110.39
645.406	115.39
645.75	106.39
646.093	112.39
646.437	102.39
646.781	108.39
647.124	104.39
647.468	102.39
647.811	97.39
648.155	94.39
648.498	94.39
648.842	94.39
649.185	100.39
649.528	98.39
649.871	103.39
650.214	98.39
650.558	95.39
650.901	98.39
651.244	92.39
651.586	89.39
651.929	89.39
652.272	93.39
652.615	93.39
652.958	106.39
653.3	94.39
653.643	96.39
653.986	97.39
654.328	94.39
654.671	92.39
655.013	93.39
655.355	92.39
655.698	97.39
656.04	101.39
656.382	114.39
656.724	107.39
657.066	101.39
657.409	99.39
657.751	99.39
658.092	98.39
658.434	82.39
658.776	87.39
659.118	86.39
659.46	86.39
659.802	74.39
660.143	85.39
660.485	78.39
660.826	86.39
661.168	91.39
661.509	83.39
661.851	75.39
662.192	72.39
662.533	88.39
662.875	73.39
663.216	74.39
663.557	68.39
663.898	71.39
664.239	75.39
664.58	85.39
664.921	79.39
665.262	79.39
665.603	75.39
665.943	75.39
666.284	75.39
666.625	67.39
666.966	74.39
667.306	67.39
667.647	72.39
667.987	64.39
668.327	70.39
668.668	74.39
669.008	78.39
669.348	68.39
669.689	71.39
670.029	65.39
670.369	67.39
670.709	69.39
671.049	70.39
671.389	63.39
671.729	69.39
672.069	64.39
672.409	64.39
672.748	64.39
673.088	56.39
673.428	65.39
673.767	62.39
674.107	64.39
674.446	56.39
674.786	63.39
675.125	63.39
675.464	60.39
675.804	52.39
676.143	69.39
676.482	67.39
676.821	55.39
677.16	59.39
677.499	57.39
677.838	70.39
678.177	63.39
678.516	64.39
678.855	63.39
679.194	64.39
679.532	54.39
679.871	63.39
680.21	55.39
680.548	62.39
680.887	58.39
681.225	55.39
681.564	68.39
681.902	57.39
682.24	59.39
682.578	64.39
682.917	61.39
683.255	55.39
683.593	59.39
683.931	60.39
684.269	65.39
684.607	63.39
684.945	53.39
685.282	59.39
685.62	58.39
685.958	47.39
686.296	57.39
686.633	61.39
686.971	47.39
687.308	56.39
687.646	61.39
687.983	60.39
688.321	62.39
688.658	66.39
688.995	57.39
689.332	53.39
689.669	58.39
690.006	61.39
690.344	63.39
690.681	49.39
691.017	55.39
691.354	51.39
691.691	61.39
692.028	60.39
692.365	61.39
692.701	68.39
693.038	60.39
693.375	64.39
693.711	59.39
694.047	59.39
694.384	51.39
694.72	48.39
695.057	55.39
695.393	48.39
695.729	47.39
696.065	50.39
696.401	54.39
696.737	45.39
697.073	56.39
697.409	59.39
697.745	72.39
698.081	67.39
698.417	61.39
698.752	58.39
699.088	57.39
699.424	59.39
699.759	48.39
700.095	53.39
700.43	46.39
700.766	46.39
701.101	45.39
701.436	50.39
701.771	46.39
702.107	45.39
702.442	48.39
702.777	38.39
703.112	52.39
703.447	40.39
703.782	51.39
704.117	47.39
704.451	46.39
704.786	36.39
705.121	42.39
705.456	45.39
705.79	40.39
706.125	44.39
706.459	50.39
706.794	53.39
707.128	47.39
707.462	45.39
707.797	47.39
708.131	48.39
708.465	44.39
708.799	52.39
709.133	43.39
709.467	35.39
709.801	45.39
710.135	42.39
710.469	38.39
710.803	40.39
711.137	44.39
711.47	42.39
711.804	44.39
712.138	40.39
712.471	40.39
712.805	42.39
713.138	43.39
713.471	40.39
713.805	36.39
714.138	38.39
714.471	44.39
714.804	43.39
715.138	41.39
715.471	41.39
715.804	44.39
716.137	49.39
716.469	45.39
716.802	41.39
717.135	37.39
717.468	39.39
717.801	39.39
718.133	34.39
718.466	34.39
718.798	38.39
719.131	34.39
719.463	39.39
719.795	36.39
720.128	39.39
720.46	36.39
720.792	35.39
721.124	42.39
721.456	33.39
721.789	36.39
722.121	39.39
722.452	40.39
722.784	37.39
723.116	40.39
723.448	37.39
723.78	37.39
724.111	36.39
724.443	37.39
724.774	38.39
725.106	36.39
725.437	38.39
725.769	32.39
726.1	37.39
726.431	35.39
726.763	37.39
727.094	35.39
727.425	39.39
727.756	34.39
728.087	43.39
728.418	40.39
728.749	39.39
729.08	42.39
729.41	43.39
729.741	37.39
730.072	36.39
730.403	29.39
730.733	30.39
731.064	36.39
731.394	26.39
731.725	32.39
732.055	35.39
732.385	35.39
732.715	29.39
733.046	37.39
733.376	40.39
733.706	27.39
734.036	30.39
734.366	37.39
734.696	33.39
735.026	36.39
735.355	31.39
735.685	42.39
736.015	42.39
736.345	38.39
736.674	32.39
737.004	37.39
737.333	35.39
737.663	28.39
737.992	37.39
738.321	36.39
738.651	37.39
738.98	38.39
739.309	37.39
739.638	39.39
739.967	43.39
740.296	47.39
740.625	38.39
740.954	50.39
741.283	41.39
741.612	31.39
741.94	35.39
742.269	37.39
742.598	35.39
742.926	43.39
743.255	33.39
743.583	34.39
743.912	38.39
744.24	43.39
744.568	40.39
744.896	36.39
745.225	35.39
745.553	37.39
745.881	41.39
746.209	50.39
746.537	52.39
746.865	45.39
747.192	49.39
747.52	41.39
747.848	38.39
748.176	39.39
748.503	42.39
748.831	41.39
749.158	40.39
749.486	33.39
749.813	40.39
750.141	40.39
750.468	32.39
750.795	40.39
751.122	32.39
751.449	36.39
751.777	32.39
752.104	25.39
752.431	32.39
752.757	35.39
753.084	24.39
753.411	34.39
753.738	33.39
754.065	33.39
754.391	39.39
754.718	29.39
755.044	34.39
755.371	29.39
755.697	30.39
756.024	30.39
756.35	28.39
756.676	37.39
757.002	36.39
757.328	32.39
757.654	37.39
757.981	28.39
758.306	28.39
758.632	33.39
758.958	27.39
759.284	35.39
759.61	27.39
759.935	34.39
760.261	28.39
760.587	31.39
760.912	34.39
761.238	35.39
761.563	33.39
761.888	32.39
762.214	33.39
762.539	28.39
762.864	27.39
763.189	31.39
763.514	34.39
763.839	29.39
764.164	34.39
764.489	29.39
764.814	27.39
765.139	26.39
765.464	26.39
765.788	32.39
766.113	34.39
766.438	35.39
766.762	26.39
767.087	33.39
767.411	34.39
767.735	31.39
768.06	29.39
768.384	24.39
768.708	28.39
769.032	28.39
769.356	28.39
769.68	24.39
770.004	31.39
770.328	34.39
770.652	28.39
770.976	29.39
771.3	28.39
771.623	29.39
771.947	31.39
772.271	27.39
772.594	26.39
772.917	29.39
773.241	26.39
773.564	22.39
773.888	25.39
774.211	27.39
774.534	22.39
774.857	29.39
775.18	21.39
775.503	26.39
775.826	25.39
776.149	22.39
776.472	26.39
776.795	31.39
777.117	38.39
777.44	46.39
777.763	43.39
778.085	43.39
778.408	31.39
778.73	30.39
779.053	26.39
779.375	28.39
779.697	27.39
780.019	24.39
780.342	31.39
780.664	31.39
780.986	26.39
781.308	31.39
781.63	23.39
781.952	25.39
782.273	25.39
782.595	27.39
782.917	31.39
783.238	31.39
783.56	22.39
783.882	25.39
784.203	29.39
784.525	24.39
784.846	21.39
785.167	28.39
785.488	21.39
785.81	22.39
786.131	24.39
786.452	27.39
786.773	23.39
787.094	21.39
787.415	25.39
787.736	20.39
788.057	32.39
788.377	25.39
788.698	25.39
789.019	21.39
789.339	24.39
789.66	19.39
789.98	22.39
790.301	26.39
790.621	26.39
790.941	30.39
791.261	27.39
791.582	30.39
791.902	30.39
792.222	22.39
792.542	37.39
792.862	31.39
793.182	26.39
793.502	27.39
793.821	25.39
794.141	28.39
794.461	29.39
794.78	19.39
795.1	34.39
795.419	25.39
795.739	29.39
796.058	28.39
796.378	28.39
796.697	28.39
797.016	25.39
797.335	26.39
797.654	24.39
797.973	21.39
798.292	28.39
798.611	27.39
798.93	21.39
799.249	23.39
799.568	30.39
799.886	23.39
800.205	20.39
800.524	28.39
800.842	14.39
801.161	25.39
801.479	26.39
801.797	27.39
802.116	29.39
802.434	25.39
802.752	21.39
803.07	26.39
803.388	24.39
803.706	23.39
804.024	27.39
804.342	23.39
804.66	24.39
804.978	27.39
805.295	23.39
805.613	27.39
805.931	26.39
806.248	28.39
806.566	28.39
806.883	22.39
807.201	17.39
807.518	30.39
807.835	24.39
808.152	19.39
808.469	24.39
808.787	22.39
809.104	18.39
809.421	23.39
809.737	28.39
810.054	21.39
810.371	21.39
810.688	23.39
811.005	20.39
811.321	23.39
811.638	23.39
811.954	22.39
812.271	20.39
812.587	19.39
812.903	27.39
813.22	23.39
813.536	25.39
813.852	19.39
814.168	17.39
814.484	24.39
814.8	26.39
815.116	20.39
815.432	26.39
815.748	24.39
816.064	17.39
816.379	27.39
816.695	22.39
817.01	20.39
817.326	21.39
817.641	20.39
817.957	25.39
818.272	20.39
818.588	20.39
818.903	25.39
819.218	19.39
819.533	24.39
819.848	23.39
820.163	22.39
820.478	16.39
820.793	15.39
821.108	23.39
821.422	20.39
821.737	27.39
822.052	22.39
822.366	28.39
822.681	22.39
822.995	19.39
823.31	23.39
823.624	22.39
823.939	23.39
824.253	18.39
824.567	23.39
824.881	21.39
825.195	21.39
825.509	26.39
825.823	21.39
826.137	24.39
826.451	22.39
826.765	23.39
827.078	20.39
827.392	22.39
827.706	19.39
828.019	20.39
828.333	21.39
828.646	23.39
828.959	18.39
829.273	24.39
829.586	22.39
829.899	20.39
830.212	15.39
830.525	21.39
830.838	18.39
831.151	17.39
831.464	18.39
831.777	16.39
832.09	17.39
832.403	15.39
832.715	20.39
833.028	22.39
833.34	23.39
833.653	17.39
833.965	21.39
834.278	20.39
834.59	21.39
834.902	23.39
835.214	19.39
835.526	22.39
835.839	13.39
836.151	20.39
836.462	22.39
836.774	27.39
837.086	20.39
837.398	19.39
837.71	24.39
838.021	16.39
838.333	20.39
838.644	17.39
838.956	22.39
839.267	28.39
839.579	24.39
839.89	25.39
840.201	18.39
840.512	19.39
840.824	19.39
841.135	20.39
841.446	19.39
841.757	19.39
842.068	19.39
842.378	22.39
842.689	16.39
843	22.39
843.31	21.39
843.621	18.39
843.932	22.39
844.242	18.39
844.553	17.39
844.863	24.39
845.173	21.39
845.483	29.39
845.794	22.39
846.104	20.39
846.414	12.39
846.724	16.39
847.034	20.39
847.344	17.39
847.653	21.39
847.963	20.39
848.273	16.39
848.582	21.39
848.892	22.39
849.202	21.39
849.511	17.39
849.82	20.39
850.13	17.39
850.439	22.39
850.748	19.39
851.057	15.39
851.367	22.39
851.676	19.39
851.985	13.39
852.294	17.39
852.602	16.39
852.911	27.39
853.22	17.39
853.529	16.39
853.837	18.39
854.146	17.39
854.454	22.39
854.763	23.39
855.071	18.39
855.38	26.39
855.688	16.39
855.996	17.39
856.304	16.39
856.612	24.39
856.92	24.39
857.228	18.39
857.536	21.39
857.844	21.39
858.152	16.39
858.46	19.39
858.767	21.39
859.075	20.39
859.382	23.39
859.69	23.39
859.997	26.39
860.305	24.39
860.612	22.39
860.919	18.39
861.226	15.39
861.534	18.39
861.841	22.39
862.148	24.39
862.455	28.39
862.761	16.39
863.068	23.39
863.375	20.39
863.682	22.39
863.988	13.39
864.295	20.39
864.602	21.39
864.908	16.39
865.214	15.39
865.521	22.39
865.827	23.39
866.133	19.39
866.439	21.39
866.746	27.39
867.052	17.39
867.358	27.39
867.663	20.39
867.969	22.39
868.275	17.39
868.581	21.39
868.887	21.39
869.192	25.39
869.498	21.39
869.803	17.39
870.109	27.39
870.414	21.39
870.719	14.39
871.025	25.39
871.33	16.39
871.635	15.39
871.94	20.39
872.245	22.39
872.55	22.39
872.855	15.39
873.16	16.39
873.465	25.39
873.769	17.39
874.074	18.39
874.378	19.39
874.683	17.39
874.987	16.39
875.292	18.39
875.596	22.39
875.901	20.39
876.205	24.39
876.509	17.39
876.813	21.39
877.117	20.39
877.421	19.39
877.725	22.39
878.029	17.39
878.333	23.39
878.636	19.39
878.94	20.39
879.244	16.39
879.547	21.39
879.851	23.39
880.154	19.39
880.458	21.39
880.761	23.39
881.064	15.39
881.367	16.39
881.67	18.39
881.973	14.39
882.276	20.39
882.579	12.39
882.882	19.39
883.185	20.39
883.488	11.39
883.791	20.39
884.093	17.39
884.396	16.39
884.698	23.39
885.001	21.39
885.303	17.39
885.606	16.39
885.908	16.39
886.21	21.39
886.512	18.39
886.814	19.39
887.116	17.39
887.418	20.39
887.72	23.39
888.022	23.39
888.324	15.39
888.626	18.39
888.927	19.39
889.229	18.39
889.53	15.39
889.832	22.39
890.133	20.39
890.435	19.39
890.736	24.39
891.037	20.39
891.338	17.39
891.639	22.39
891.94	20.39
892.241	19.39
892.542	16.39
892.843	15.39
893.144	16.39
893.445	22.39
893.745	20.39
894.046	25.39
894.347	13.39
894.647	14.39
894.947	21.39
895.248	16.39
895.548	18.39
895.848	20.39
896.149	14.39
896.449	22.39
896.749	22.39
897.049	16.39
897.349	25.39
897.649	17.39
897.948	14.39
898.248	20.39
898.548	24.39
898.847	16.39
899.147	15.39
899.446	17.39
899.746	20.39
900.045	20.39
900.345	18.39
900.644	17.39
900.943	21.39
901.242	18.39
901.541	22.39
901.84	23.39
902.139	18.39
902.438	17.39
902.737	20.39
903.036	20.39
903.334	18.39
903.633	21.39
903.932	21.39
